dTect V4.6
Well Log
Fri 04 Oct 2013, 15:51:23
!
Name: P_Impedance_rel
Unit of Measure: Kg/m2s
Header info: No
Storage type: Ascii
!
96.4567	505307
96.9488	155.729
97.4409	155.729
97.9331	155.729
98.4252	155.729
98.9173	155.729
99.4095	155.729
99.9016	155.729
100.394	155.729
100.886	155.729
101.378	155.729
101.87	155.729
102.362	155.729
102.854	155.729
103.346	155.729
103.839	155.729
104.331	155.729
104.823	155.729
105.315	155.729
105.807	156.821
106.299	187.662
106.791	418.532
107.283	603.49
107.776	603.49
108.268	603.49
108.76	603.49
109.252	603.49
109.744	603.49
110.236	603.49
110.728	603.49
111.22	603.49
111.713	603.49
112.205	603.49
112.697	603.49
113.189	603.49
113.681	603.49
114.173	603.49
114.665	603.49
115.157	603.49
115.65	603.49
116.142	603.49
116.634	603.49
117.126	603.49
117.618	603.49
118.11	603.683
118.602	610.641
119.094	691.653
119.587	992.348
120.079	992.348
120.571	992.348
121.063	992.348
121.555	992.348
122.047	992.348
122.539	992.348
123.031	992.348
123.524	992.348
124.016	992.348
124.508	992.348
125	992.348
125.492	992.348
125.984	992.348
126.476	992.348
126.969	992.348
127.461	992.348
127.953	992.348
128.445	992.348
128.937	992.348
129.429	992.348
129.921	992.348
130.413	992.348
130.906	992.383
131.398	994.013
131.89	1010.5
132.382	1016.52
132.874	1016.52
133.366	1016.52
133.858	1016.52
134.35	1016.52
134.843	1016.52
135.335	1016.52
135.827	1016.52
136.319	1016.52
136.811	1016.52
137.303	1016.52
137.795	1016.52
138.287	1016.52
138.78	1016.52
139.272	1016.52
139.764	1016.52
140.256	1016.52
140.748	1016.52
141.24	1016.52
141.732	1016.52
142.224	1016.52
142.717	1016.52
143.209	1016.52
143.701	1013.01
144.193	956.627
144.685	854.605
145.177	854.207
145.669	854.207
146.161	854.207
146.654	854.207
147.146	854.207
147.638	854.207
148.13	854.207
148.622	854.207
149.114	854.207
149.606	854.207
150.098	854.207
150.591	854.207
151.083	854.207
151.575	854.207
152.067	854.207
152.559	854.207
153.051	854.207
153.543	854.207
154.035	854.207
154.528	854.207
155.02	854.207
155.512	854.207
156.004	854.207
156.496	838.568
156.988	617.68
157.48	589.676
157.972	588.652
158.465	588.652
158.957	588.652
159.449	588.652
159.941	588.652
160.433	588.652
160.925	588.652
161.417	588.652
161.909	588.652
162.402	588.652
162.894	588.652
163.386	588.652
163.878	588.652
164.37	588.652
164.862	588.652
165.354	588.652
165.846	588.652
166.339	588.652
166.831	588.652
167.323	588.652
167.815	588.652
168.307	588.652
168.799	574.674
169.291	364.95
169.783	166.57
170.276	147.104
170.768	147.104
171.26	147.104
171.752	147.104
172.244	147.104
172.736	147.104
173.228	147.104
173.72	147.104
174.213	147.104
174.705	147.104
175.197	147.104
175.689	147.104
176.181	147.104
176.673	147.104
177.165	147.104
177.657	147.104
178.15	147.104
178.642	147.104
179.134	147.104
179.626	147.104
180.118	147.104
180.61	147.104
181.102	143.788
181.594	73.6981
182.087	-262.066
182.579	-323.019
183.071	-323.019
183.563	-323.019
184.055	-323.019
184.547	-323.019
185.039	-323.019
185.532	-323.019
186.024	-323.019
186.516	-323.019
187.008	-323.019
187.5	-323.019
187.992	-323.019
188.484	-323.019
188.976	-323.019
189.469	-323.019
189.961	-323.019
190.453	-323.019
190.945	-323.019
191.437	-323.019
191.929	-323.019
192.421	-323.019
192.913	-323.019
193.406	-323.019
193.898	-334.311
194.39	-499.842
194.882	-605.798
195.374	-624.154
195.866	-624.154
196.358	-624.154
196.85	-624.154
197.343	-624.154
197.835	-624.154
198.327	-624.154
198.819	-624.154
199.311	-624.154
199.803	-624.154
200.295	-624.154
200.787	-624.154
201.28	-624.154
201.772	-624.154
202.264	-624.154
202.756	-624.154
203.248	-624.154
203.74	-624.154
204.232	-624.154
204.724	-624.154
205.217	-624.154
205.709	-624.154
206.201	-627.478
206.693	-682.272
207.185	-800.999
207.677	-843.822
208.169	-843.822
208.661	-843.822
209.154	-843.822
209.646	-843.822
210.138	-843.822
210.63	-843.822
211.122	-843.822
211.614	-843.822
212.106	-843.822
212.598	-843.822
213.091	-843.822
213.583	-843.822
214.075	-843.822
214.567	-843.822
215.059	-843.822
215.551	-843.822
216.043	-843.822
216.535	-843.822
217.028	-843.822
217.52	-843.822
218.012	-843.822
218.504	-843.822
218.996	-852.997
219.488	-987.896
219.98	-1079.21
220.472	-1087.23
220.965	-1087.23
221.457	-1087.23
221.949	-1087.23
222.441	-1087.23
222.933	-1087.23
223.425	-1087.23
223.917	-1087.23
224.409	-1087.23
224.902	-1087.23
225.394	-1087.23
225.886	-1087.23
226.378	-1087.23
226.87	-1087.23
227.362	-1087.23
227.854	-1087.23
228.346	-1087.23
228.839	-1087.23
229.331	-1087.23
229.823	-1087.23
230.315	-1087.23
230.807	-1087.23
231.299	-1089.33
231.791	-1122.61
232.283	-1177.96
232.776	-1203.85
233.268	-1203.85
233.76	-1203.85
234.252	-1203.85
234.744	-1203.85
235.236	-1203.85
235.728	-1203.85
236.22	-1203.85
236.713	-1203.85
237.205	-1203.85
237.697	-1203.85
238.189	-1203.85
238.681	-1203.85
239.173	-1203.85
239.665	-1203.85
240.158	-1203.85
240.65	-1203.85
241.142	-1203.85
241.634	-1203.85
242.126	-1203.85
242.618	-1203.85
243.11	-1203.85
243.602	-1203.47
244.094	-1195.07
244.587	-1147.65
245.079	-1093.61
245.571	-1093.61
246.063	-1093.61
246.555	-1093.61
247.047	-1093.61
247.539	-1093.61
248.032	-1093.61
248.524	-1093.61
249.016	-1093.61
249.508	-1093.61
250	-1093.61
250.492	-1093.61
250.984	-1093.61
251.476	-1093.61
251.969	-1093.61
252.461	-1093.61
252.953	-1093.61
253.445	-1093.61
253.937	-1093.61
254.429	-1093.61
254.921	-1093.61
255.413	-1093.61
255.906	-1093.61
256.398	-1091.02
256.89	-1047.79
257.382	-947.482
257.874	-913.011
258.366	-913.011
258.858	-913.011
259.35	-913.011
259.843	-913.011
260.335	-913.011
260.827	-913.011
261.319	-913.011
261.811	-913.011
262.303	-913.011
262.795	-913.011
263.287	-913.011
263.78	-913.011
264.272	-913.011
264.764	-913.011
265.256	-913.011
265.748	-913.011
266.24	-913.011
266.732	-913.011
267.224	-913.011
267.717	-913.011
268.209	-913.011
268.701	-912.491
269.193	-901.786
269.685	-848.513
270.177	-774.987
270.669	-774.987
271.161	-774.987
271.654	-774.987
272.146	-774.987
272.638	-774.987
273.13	-774.987
273.622	-774.987
274.114	-774.987
274.606	-774.987
275.098	-774.987
275.591	-774.987
276.083	-774.987
276.575	-774.987
277.067	-774.987
277.559	-774.987
278.051	-774.987
278.543	-774.987
279.035	-774.987
279.528	-774.987
280.02	-774.987
280.512	-774.987
281.004	-774.987
281.496	-774.523
281.988	-757.505
282.48	-609.082
282.972	-594.446
283.465	-594.446
283.957	-594.446
284.449	-594.446
284.941	-594.446
285.433	-594.446
285.925	-594.446
286.417	-594.446
286.909	-594.446
287.402	-594.446
287.894	-594.446
288.386	-594.446
288.878	-594.446
289.37	-594.446
289.862	-594.446
290.354	-594.446
290.846	-594.446
291.339	-594.446
291.831	-594.446
292.323	-594.446
292.815	-594.446
293.307	-594.446
293.799	-594.446
294.291	-586.294
294.783	-463.474
295.276	-340.481
295.768	-327.958
296.26	-327.958
296.752	-327.958
297.244	-327.958
297.736	-327.958
298.228	-327.958
298.72	-327.958
299.213	-327.958
299.705	-327.958
300.197	-327.958
300.689	-327.958
301.181	-327.958
301.673	-327.958
302.165	-327.958
302.657	-327.958
303.15	-327.958
303.642	-327.958
304.134	-327.958
304.626	-327.958
305.118	-327.958
305.61	-327.958
306.102	-327.958
306.595	-326.573
307.087	-295.498
307.579	-128.259
308.071	-74.7918
308.563	-74.7918
309.055	-74.7918
309.547	-74.7918
310.039	-74.7918
310.531	-74.7918
311.024	-74.7918
311.516	-74.7918
312.008	-74.7918
312.5	-74.7918
312.992	-74.7918
313.484	-74.7918
313.976	-74.7918
314.469	-74.7918
314.961	-74.7918
315.453	-74.7918
315.945	-74.7918
316.437	-74.7918
316.929	-74.7918
317.421	-74.7918
317.913	-74.7918
318.406	-74.7918
318.898	-74.7918
319.39	-70.2186
319.882	-1.29583
320.374	69.4966
320.866	88.6152
321.358	88.6152
321.85	88.6152
322.343	88.6152
322.835	88.6152
323.327	88.6152
323.819	88.6152
324.311	88.6152
324.803	88.6152
325.295	88.6152
325.787	88.6152
326.28	88.6152
326.772	88.6152
327.264	88.6152
327.756	88.6152
328.248	88.6152
328.74	88.6152
329.232	88.6152
329.724	88.6152
330.217	88.6152
330.709	88.6152
331.201	88.6152
331.693	89.5162
332.185	105.295
332.677	152.54
333.169	191.822
333.661	191.822
334.154	191.822
334.646	191.822
335.138	191.822
335.63	191.822
336.122	191.822
336.614	191.822
337.106	191.822
337.598	191.822
338.091	191.822
338.583	191.822
339.075	191.822
339.567	191.822
340.059	191.822
340.551	191.822
341.043	191.822
341.535	191.822
342.028	191.822
342.52	191.822
343.012	191.822
343.504	191.822
343.996	191.822
344.488	193.47
344.98	221.663
345.472	294.169
345.965	302.48
346.457	302.48
346.949	302.48
347.441	302.48
347.933	302.48
348.425	302.48
348.917	302.48
349.409	302.48
349.902	302.48
350.394	302.48
350.886	302.48
351.378	302.48
351.87	302.48
352.362	302.48
352.854	302.48
353.346	302.48
353.839	302.48
354.331	302.48
354.823	302.48
355.315	302.48
355.807	302.48
356.299	302.48
356.791	302.751
357.283	311.002
357.776	377.65
358.268	437.927
358.76	437.927
359.252	437.927
359.744	437.927
360.236	437.927
360.728	437.927
361.22	437.927
361.713	437.927
362.205	437.927
362.697	437.927
363.189	437.927
363.681	437.927
364.173	437.927
364.665	437.927
365.158	437.927
365.65	437.927
366.142	437.927
366.634	437.927
367.126	437.927
367.618	437.927
368.11	437.927
368.602	437.927
369.095	437.927
369.587	438.427
370.079	450.354
370.571	520.075
371.063	531.041
371.555	531.041
372.047	531.041
372.539	531.041
373.032	531.041
373.524	531.041
374.016	531.041
374.508	531.041
375	531.041
375.492	531.041
375.984	531.041
376.476	531.041
376.969	531.041
377.461	531.041
377.953	531.041
378.445	531.041
378.937	531.041
379.429	531.041
379.921	531.041
380.413	531.041
380.906	531.041
381.398	531.041
381.89	531.041
382.382	531.33
382.874	535.646
383.366	539.554
383.858	540.529
384.35	540.529
384.843	540.529
385.335	540.529
385.827	540.529
386.319	540.529
386.811	540.529
387.303	540.529
387.795	540.529
388.287	540.529
388.78	540.529
389.272	540.529
389.764	540.529
390.256	540.529
390.748	540.529
391.24	540.529
391.732	540.529
392.224	540.529
392.717	540.529
393.209	540.529
393.701	540.529
394.193	540.529
394.685	540.777
395.177	545.139
395.669	558.367
396.161	569.058
396.654	569.058
397.146	569.058
397.638	569.058
398.13	569.058
398.622	569.058
399.114	569.058
399.606	569.058
400.098	569.058
400.591	569.058
401.083	569.058
401.575	569.058
402.067	569.058
402.559	569.058
403.051	569.058
403.543	569.058
404.035	569.058
404.528	569.058
405.02	569.058
405.512	569.058
406.004	569.058
406.496	569.058
406.988	569.058
407.48	570.817
407.972	601.731
408.465	690.66
408.957	702.559
409.449	702.559
409.941	702.559
410.433	702.559
410.925	702.559
411.417	702.559
411.909	702.559
412.402	702.559
412.894	702.559
413.386	702.559
413.878	702.559
414.37	702.559
414.862	702.559
415.354	702.559
415.846	702.559
416.339	702.559
416.831	702.559
417.323	702.559
417.815	702.559
418.307	702.559
418.799	702.559
419.291	702.559
419.783	702.559
420.276	706.189
420.768	760.966
421.26	817.162
421.752	817.817
422.244	817.817
422.736	817.817
423.228	817.817
423.721	817.817
424.213	817.817
424.705	817.817
425.197	817.817
425.689	817.817
426.181	817.817
426.673	817.817
427.165	817.817
427.658	817.817
428.15	817.817
428.642	817.817
429.134	817.817
429.626	817.817
430.118	817.817
430.61	817.817
431.102	817.817
431.595	817.817
432.087	817.817
432.579	817.732
433.071	815.499
433.563	800.597
434.055	795.698
434.547	795.698
435.039	795.698
435.531	795.698
436.024	795.698
436.516	795.698
437.008	795.698
437.5	795.698
437.992	795.698
438.484	795.698
438.976	795.698
439.469	795.698
439.961	795.698
440.453	795.698
440.945	795.698
441.437	795.698
441.929	795.698
442.421	795.698
442.913	795.698
443.406	795.698
443.898	795.698
444.39	795.698
444.882	795.698
445.374	794.868
445.866	782.027
446.358	764.565
446.85	758.675
447.343	758.675
447.835	758.675
448.327	758.675
448.819	758.675
449.311	758.675
449.803	758.675
450.295	758.675
450.787	758.675
451.28	758.675
451.772	758.675
452.264	758.675
452.756	758.675
453.248	758.675
453.74	758.675
454.232	758.675
454.724	758.675
455.217	758.675
455.709	758.675
456.201	758.675
456.693	758.675
457.185	758.675
457.677	758.892
458.169	763.157
458.661	782.179
459.154	808.283
459.646	808.283
460.138	808.283
460.63	808.283
461.122	808.283
461.614	808.283
462.106	808.283
462.598	808.283
463.091	808.283
463.583	808.283
464.075	808.283
464.567	808.283
465.059	808.283
465.551	808.283
466.043	808.283
466.535	808.283
467.028	808.283
467.52	808.283
468.012	808.283
468.504	808.283
468.996	808.283
469.488	808.283
469.98	808.283
470.472	808.283
470.965	806.409
471.457	779.831
471.949	774.736
472.441	774.578
472.933	774.578
473.425	774.578
473.917	774.578
474.409	774.578
474.902	774.578
475.394	774.578
475.886	774.578
476.378	774.578
476.87	774.578
477.362	774.578
477.854	774.578
478.346	774.578
478.839	774.578
479.331	774.578
479.823	774.578
480.315	774.578
480.807	774.578
481.299	774.578
481.791	774.578
482.283	774.578
482.776	774.578
483.268	769.318
483.76	687.324
484.252	566.545
484.744	526.654
485.236	526.654
485.728	526.654
486.221	526.654
486.713	526.654
487.205	526.654
487.697	526.654
488.189	526.654
488.681	526.654
489.173	526.654
489.665	526.654
490.158	526.654
490.65	526.654
491.142	526.654
491.634	526.654
492.126	526.654
492.618	526.654
493.11	526.654
493.602	526.654
494.095	526.654
494.587	526.654
495.079	526.654
495.571	526.157
496.063	511.043
496.555	385.402
497.047	224.01
497.539	224.01
498.032	224.01
498.524	224.01
499.016	224.01
499.508	224.01
500	224.01
500.492	224.01
500.984	224.01
501.476	224.01
501.969	224.01
502.461	224.01
502.953	224.01
503.445	224.01
503.937	224.01
504.429	224.01
504.921	224.01
505.413	224.01
505.906	224.01
506.398	224.01
506.89	224.01
507.382	224.01
507.874	224.01
508.366	222.926
508.858	198.158
509.35	58.8174
509.843	-10.7615
510.335	-10.7615
510.827	-10.7615
511.319	-10.7615
511.811	-10.7615
512.303	-10.7615
512.795	-10.7615
513.287	-10.7615
513.78	-10.7615
514.272	-10.7615
514.764	-10.7615
515.256	-10.7615
515.748	-10.7615
516.24	-10.7615
516.732	-10.7615
517.224	-10.7615
517.717	-10.7615
518.209	-10.7615
518.701	-10.7615
519.193	-10.7615
519.685	-10.7615
520.177	-10.7615
520.669	-10.7615
521.161	-14.7644
521.654	-83.9868
522.146	-272.565
522.638	-316.943
523.13	-316.943
523.622	-316.943
524.114	-316.943
524.606	-316.943
525.098	-316.943
525.591	-316.943
526.083	-316.943
526.575	-316.943
527.067	-316.943
527.559	-316.943
528.051	-316.943
528.543	-316.943
529.035	-316.943
529.528	-316.943
530.02	-316.943
530.512	-316.943
531.004	-316.943
531.496	-316.943
531.988	-316.943
532.48	-316.943
532.972	-316.943
533.465	-316.943
533.957	-329.278
534.449	-517.291
534.941	-732.906
535.433	-770.229
535.925	-770.229
536.417	-770.229
536.909	-770.229
537.402	-770.229
537.894	-770.229
538.386	-770.229
538.878	-770.229
539.37	-770.229
539.862	-770.229
540.354	-770.229
540.846	-770.229
541.339	-770.229
541.831	-770.229
542.323	-770.229
542.815	-770.229
543.307	-770.229
543.799	-770.229
544.291	-770.229
544.784	-770.229
545.276	-770.229
545.768	-770.229
546.26	-772.205
546.752	-812.487
547.244	-1002.22
547.736	-1190.68
548.228	-1190.68
548.72	-1190.68
549.213	-1190.68
549.705	-1190.68
550.197	-1190.68
550.689	-1190.68
551.181	-1190.68
551.673	-1190.68
552.165	-1190.68
552.658	-1190.68
553.15	-1190.68
553.642	-1190.68
554.134	-1190.68
554.626	-1190.68
555.118	-1190.68
555.61	-1190.68
556.102	-1190.68
556.595	-1190.68
557.087	-1190.68
557.579	-1190.68
558.071	-1190.68
558.563	-1190.68
559.055	-1191.09
559.547	-1210.17
560.039	-1400.8
560.531	-1441.31
561.024	-1441.31
561.516	-1441.31
562.008	-1441.31
562.5	-1441.31
562.992	-1441.31
563.484	-1441.31
563.976	-1441.31
564.469	-1441.31
564.961	-1441.31
565.453	-1441.31
565.945	-1441.31
566.437	-1441.31
566.929	-1441.31
567.421	-1441.31
567.913	-1441.31
568.406	-1441.31
568.898	-1441.31
569.39	-1441.31
569.882	-1441.31
570.374	-1441.31
570.866	-1441.31
571.358	-1441.31
571.85	-1444.48
572.343	-1494.03
572.835	-1568.82
573.327	-1598.18
573.819	-1598.18
574.311	-1598.18
574.803	-1598.18
575.295	-1598.18
575.787	-1598.18
576.28	-1598.18
576.772	-1598.18
577.264	-1598.18
577.756	-1598.18
578.248	-1598.18
578.74	-1598.18
579.232	-1598.18
579.724	-1598.18
580.217	-1598.18
580.709	-1598.18
581.201	-1598.18
581.693	-1598.18
582.185	-1598.18
582.677	-1598.18
583.169	-1598.18
583.661	-1598.18
584.154	-1598.41
584.646	-1603.92
585.138	-1640.8
585.63	-1716.45
586.122	-1716.45
586.614	-1716.45
587.106	-1716.45
587.598	-1716.45
588.091	-1716.45
588.583	-1716.45
589.075	-1716.45
589.567	-1716.45
590.059	-1716.45
590.551	-1716.45
591.043	-1716.45
591.535	-1716.45
592.028	-1716.45
592.52	-1716.45
593.012	-1716.45
593.504	-1716.45
593.996	-1716.45
594.488	-1716.45
594.98	-1716.45
595.472	-1716.45
595.965	-1716.45
596.457	-1716.45
596.949	-1716.45
597.441	-1715.49
597.933	-1701.51
598.425	-1694.34
598.917	-1693.32
599.409	-1693.32
599.902	-1693.32
600.394	-1693.32
600.886	-1693.32
601.378	-1693.32
601.87	-1693.32
602.362	-1693.32
602.854	-1693.32
603.346	-1693.32
603.839	-1693.32
604.331	-1693.32
604.823	-1693.32
605.315	-1693.32
605.807	-1693.32
606.299	-1693.32
606.791	-1693.32
607.284	-1693.32
607.776	-1693.32
608.268	-1693.32
608.76	-1693.32
609.252	-1693.32
609.744	-1690.5
610.236	-1643
610.728	-1523.03
611.22	-1435.33
611.713	-1435.33
612.205	-1435.33
612.697	-1435.33
613.189	-1435.33
613.681	-1435.33
614.173	-1435.33
614.665	-1435.33
615.157	-1435.33
615.65	-1435.33
616.142	-1435.33
616.634	-1435.33
617.126	-1435.33
617.618	-1435.33
618.11	-1435.33
618.602	-1435.33
619.095	-1435.33
619.587	-1435.33
620.079	-1435.33
620.571	-1435.33
621.063	-1435.33
621.555	-1435.33
622.047	-1435.32
622.539	-1434.8
623.032	-1399.72
623.524	-994.503
624.016	-993.429
624.508	-993.429
625	-993.429
625.492	-993.429
625.984	-993.429
626.476	-993.429
626.969	-993.429
627.461	-993.429
627.953	-993.429
628.445	-993.429
628.937	-993.429
629.429	-993.429
629.921	-993.429
630.413	-993.429
630.906	-993.429
631.398	-993.429
631.89	-993.429
632.382	-993.429
632.874	-993.429
633.366	-993.429
633.858	-993.429
634.35	-993.429
634.843	-993.429
635.335	-980.784
635.827	-788.052
636.319	-560.356
636.811	-486.043
637.303	-486.043
637.795	-486.043
638.287	-486.043
638.78	-486.043
639.272	-486.043
639.764	-486.043
640.256	-486.043
640.748	-486.043
641.24	-486.043
641.732	-486.043
642.224	-486.043
642.717	-486.043
643.209	-486.043
643.701	-486.043
644.193	-486.043
644.685	-486.043
645.177	-486.043
645.669	-486.043
646.161	-486.043
646.654	-486.043
647.146	-486.043
647.638	-484.468
648.13	-451.075
648.622	-269.715
649.114	43.383
649.606	43.383
650.098	43.383
650.591	43.383
651.083	43.383
651.575	43.383
652.067	43.383
652.559	43.383
653.051	43.383
653.543	43.383
654.035	43.383
654.528	43.383
655.02	43.383
655.512	43.383
656.004	43.383
656.496	43.383
656.988	43.383
657.48	43.383
657.972	43.383
658.465	43.383
658.957	43.383
659.449	43.383
659.941	43.383
660.433	43.383
660.925	68.8642
661.417	437.92
661.909	617.36
662.402	641.279
662.894	641.279
663.386	641.279
663.878	641.279
664.37	641.279
664.862	641.279
665.354	641.279
665.846	641.279
666.339	641.279
666.831	641.279
667.323	641.279
667.815	641.279
668.307	641.279
668.799	641.279
669.291	641.279
669.784	641.279
670.276	641.279
670.768	641.279
671.26	641.279
671.752	641.279
672.244	641.279
672.736	641.279
673.228	647.829
673.721	759.503
674.213	1056.58
674.705	1285.92
675.197	1285.92
675.689	1285.92
676.181	1285.92
676.673	1285.92
677.165	1285.92
677.657	1285.92
678.15	1285.92
678.642	1285.92
679.134	1285.92
679.626	1285.92
680.118	1285.92
680.61	1285.92
681.102	1285.92
681.595	1285.92
682.087	1285.92
682.579	1285.92
683.071	1285.92
683.563	1285.92
684.055	1285.92
684.547	1285.92
685.039	1285.92
685.532	1285.92
686.024	1285.92
686.516	1318.26
687.008	1772.65
687.5	1801.83
687.992	1802.52
688.484	1802.52
688.976	1802.52
689.469	1802.52
689.961	1802.52
690.453	1802.52
690.945	1802.52
691.437	1802.52
691.929	1802.52
692.421	1802.52
692.913	1802.52
693.406	1802.52
693.898	1802.52
694.39	1802.52
694.882	1802.52
695.374	1802.52
695.866	1802.52
696.358	1802.52
696.85	1802.52
697.343	1802.52
