dTect V4.2
Well Log
do 03 nov 2011, 18:15:14
!
Name: P-Impedance_rel
Unit of Measure: Kg/m2s
Header info: No
Storage type: Ascii
!
30.15	-3257.41
30.3	-3257.41
30.45	-3257.41
30.6	-3257.41
30.75	-3257.41
30.9	-3257.41
31.05	-3038.22
31.2	-2880.47
31.35	-2849.81
31.5	-2849.81
31.65	-2849.81
31.8	-2849.81
31.95	-2849.81
32.1	-2849.81
32.25	-2849.81
32.4	-2849.81
32.55	-2849.81
32.7	-2849.81
32.85	-2849.81
33	-2849.81
33.15	-2849.81
33.3	-2849.81
33.45	-2849.81
33.6	-2849.81
33.75	-2849.81
33.9	-2849.81
34.05	-2849.81
34.2	-2849.81
34.35	-2849.81
34.5	-2849.81
34.65	-2849.81
34.8	-2849.81
34.95	-2392.97
35.1	-1439.69
35.25	-1332.47
35.4	-1332.47
35.55	-1332.47
35.7	-1332.47
35.85	-1332.47
36	-1332.47
36.15	-1332.47
36.3	-1332.47
36.45	-1332.47
36.6	-1332.47
36.75	-1332.47
36.9	-1332.47
37.05	-1332.47
37.2	-1332.47
37.35	-1332.47
37.5	-1332.47
37.65	-1332.47
37.8	-1332.47
37.95	-1332.47
38.1	-1332.47
38.25	-1332.47
38.4	-1332.47
38.55	-1332.47
38.7	-1332.47
38.85	-1250.88
39	-2.8917
39.15	105.153
39.3	105.153
39.45	105.153
39.6	105.153
39.75	105.153
39.9	105.153
40.05	105.153
40.2	105.153
40.35	105.153
40.5	105.153
40.65	105.153
40.8	105.153
40.95	105.153
41.1	105.153
41.25	105.153
41.4	105.153
41.55	105.153
41.7	105.153
41.85	105.153
42	105.153
42.15	105.153
42.3	105.153
42.45	105.153
42.6	105.153
42.75	189.515
42.9	577.325
43.05	882.353
43.2	882.353
43.35	882.353
43.5	882.353
43.65	882.353
43.8	882.353
43.95	882.353
44.1	882.353
44.25	882.353
44.4	882.353
44.55	882.353
44.7	882.353
44.85	882.353
45	882.353
45.15	882.353
45.3	882.353
45.45	882.353
45.6	882.353
45.75	882.353
45.9	882.353
46.05	882.353
46.2	882.353
46.35	882.353
46.5	882.353
46.65	901.748
46.8	1100.63
46.95	1430.24
47.1	1430.24
47.25	1430.24
47.4	1430.24
47.55	1430.24
47.7	1430.24
47.85	1430.24
48	1430.24
48.15	1430.24
48.3	1430.24
48.45	1430.24
48.6	1430.24
48.75	1430.24
48.9	1430.24
49.05	1430.24
49.2	1430.24
49.35	1430.24
49.5	1430.24
49.65	1430.24
49.8	1430.24
49.95	1430.24
50.1	1430.24
50.25	1430.24
50.4	1430.24
50.55	1430.24
50.7	1590.15
50.85	1849.45
51	1940.61
51.15	1940.61
51.3	1940.61
51.45	1940.61
51.6	1940.61
51.75	1940.61
51.9	1940.61
52.05	1940.61
52.2	1940.61
52.35	1940.61
52.5	1940.61
52.65	1940.61
52.8	1940.61
52.95	1940.61
53.1	1940.61
53.25	1940.61
53.4	1940.61
53.55	1940.61
53.7	1940.61
53.85	1940.61
54	1940.61
54.15	1940.61
54.3	1940.61
54.45	1940.61
54.6	1960.06
54.75	2026.82
54.9	2069.64
55.05	2069.64
55.2	2069.64
55.35	2069.64
55.5	2069.64
55.65	2069.64
55.8	2069.64
55.95	2069.64
56.1	2069.64
56.25	2069.64
56.4	2069.64
56.55	2069.64
56.7	2069.64
56.85	2069.64
57	2069.64
57.15	2069.64
57.3	2069.64
57.45	2069.64
57.6	2069.64
57.75	2069.64
57.9	2069.64
58.05	2069.64
58.2	2069.64
58.35	2069.64
58.5	2069.64
58.65	1961.63
58.8	1882.76
58.95	1871.2
59.1	1871.2
59.25	1871.2
59.4	1871.2
59.55	1871.2
59.7	1871.2
59.85	1871.2
60	1871.2
60.15	1871.2
60.3	1871.2
60.45	1871.2
60.6	1871.2
60.75	1871.2
60.9	1871.2
61.05	1871.2
61.2	1871.2
61.35	1871.2
61.5	1871.2
61.65	1871.2
61.8	1871.2
61.95	1871.2
62.1	1871.2
62.25	1871.2
62.4	1871.2
62.55	1817.35
62.7	1726.71
62.85	1696.68
63	1696.68
63.15	1696.68
63.3	1696.68
63.45	1696.68
63.6	1696.68
63.75	1696.68
63.9	1696.68
64.05	1696.68
64.2	1696.68
64.35	1696.68
64.5	1696.68
64.65	1696.68
64.8	1696.68
64.95	1696.68
65.1	1696.68
65.25	1696.68
65.4	1696.68
65.55	1696.68
65.7	1696.68
65.85	1696.68
66	1696.68
66.15	1696.68
66.3	1696.68
66.45	1691.41
66.6	1476.43
66.75	1403.89
66.9	1403.89
67.05	1403.89
67.2	1403.89
67.35	1403.89
67.5	1403.89
67.65	1403.89
67.8	1403.89
67.95	1403.89
68.1	1403.89
68.25	1403.89
68.4	1403.89
68.55	1403.89
68.7	1403.89
68.85	1403.89
69	1403.89
69.15	1403.89
69.3	1403.89
69.45	1403.89
69.6	1403.89
69.75	1403.89
69.9	1403.89
70.05	1403.89
70.2	1403.89
70.35	1403.89
70.5	1106.91
70.65	835.101
70.8	779.724
70.95	779.724
71.1	779.724
71.25	779.724
71.4	779.724
71.55	779.724
71.7	779.724
71.85	779.724
72	779.724
72.15	779.724
72.3	779.724
72.45	779.724
72.6	779.724
72.75	779.724
72.9	779.724
73.05	779.724
73.2	779.724
73.35	779.724
73.5	779.724
73.65	779.724
73.8	779.724
73.95	779.724
74.1	779.724
74.25	779.724
74.4	685.148
74.55	265.223
74.7	162.561
74.85	162.561
75	162.561
75.15	162.561
75.3	162.561
75.45	162.561
75.6	162.561
75.75	162.561
75.9	162.561
76.05	162.561
76.2	162.561
76.35	162.561
76.5	162.561
76.65	162.561
76.8	162.561
76.95	162.561
77.1	162.561
77.25	162.561
77.4	162.561
77.55	162.561
77.7	162.561
77.85	162.561
78	162.561
78.15	162.561
78.3	162.561
78.45	-80.4019
78.6	-211.146
78.75	-230.284
78.9	-230.284
79.05	-230.284
79.2	-230.284
79.35	-230.284
79.5	-230.284
79.65	-230.284
79.8	-230.284
79.95	-230.284
80.1	-230.284
80.25	-230.284
80.4	-230.284
80.55	-230.284
80.7	-230.284
80.85	-230.284
81	-230.284
81.15	-230.284
81.3	-230.284
81.45	-230.284
81.6	-230.284
81.75	-230.284
81.9	-230.284
82.05	-230.284
82.2	-230.284
82.35	-366.439
82.5	-645.374
82.65	-715.753
82.8	-715.753
82.95	-715.753
83.1	-715.753
83.25	-715.753
83.4	-715.753
83.55	-715.753
83.7	-715.753
83.85	-715.753
84	-715.753
84.15	-715.753
84.3	-715.753
84.45	-715.753
84.6	-715.753
84.75	-715.753
84.9	-715.753
85.05	-715.753
85.2	-715.753
85.35	-715.753
85.5	-715.753
85.65	-715.753
85.8	-715.753
85.95	-715.753
86.1	-715.753
86.25	-715.753
86.4	-1139.59
86.55	-1307.9
86.7	-1319
86.85	-1319
87	-1319
87.15	-1319
87.3	-1319
87.45	-1319
87.6	-1319
87.75	-1319
87.9	-1319
88.05	-1319
88.2	-1319
88.35	-1319
88.5	-1319
88.65	-1319
88.8	-1319
88.95	-1319
89.1	-1319
89.25	-1319
89.4	-1319
89.55	-1319
89.7	-1319
89.85	-1319
90	-1319
90.15	-1319
90.3	-1426.33
90.45	-1568.44
90.6	-1612.44
90.75	-1612.44
90.9	-1612.44
91.05	-1612.44
91.2	-1612.44
91.35	-1612.44
91.5	-1612.44
91.65	-1612.44
91.8	-1612.44
91.95	-1612.44
92.1	-1612.44
92.25	-1612.44
92.4	-1612.44
92.55	-1612.44
92.7	-1612.44
92.85	-1612.44
93	-1612.44
93.15	-1612.44
93.3	-1612.44
93.45	-1612.44
93.6	-1612.44
93.75	-1612.44
93.9	-1612.44
94.05	-1612.44
94.2	-1611.83
94.35	-1606.71
94.5	-1603.76
94.65	-1603.76
94.8	-1603.76
94.95	-1603.76
95.1	-1603.76
95.25	-1603.76
95.4	-1603.76
95.55	-1603.76
95.7	-1603.76
95.85	-1603.76
96	-1603.76
96.15	-1603.76
96.3	-1603.76
96.45	-1603.76
96.6	-1603.76
96.75	-1603.76
96.9	-1603.76
97.05	-1603.76
97.2	-1603.76
97.35	-1603.76
97.5	-1603.76
97.65	-1603.76
97.8	-1603.76
97.95	-1603.76
98.1	-1603.76
98.25	-1621.58
98.4	-1644.28
98.55	-1651.31
98.7	-1651.31
98.85	-1651.31
99	-1651.31
99.15	-1651.31
99.3	-1651.31
99.45	-1651.31
99.6	-1651.31
99.75	-1651.31
99.9	-1651.31
100.05	-1651.31
100.2	-1651.31
100.35	-1651.31
100.5	-1651.31
100.65	-1651.31
100.8	-1651.31
100.95	-1651.31
101.1	-1651.31
101.25	-1651.31
101.4	-1651.31
101.55	-1651.31
101.7	-1651.31
101.85	-1651.31
102	-1651.31
102.15	-1649.05
102.3	-1640.48
102.45	-1632.8
102.6	-1632.8
102.75	-1632.8
102.9	-1632.8
103.05	-1632.8
103.2	-1632.8
103.35	-1632.8
103.5	-1632.8
103.65	-1632.8
103.8	-1632.8
103.95	-1632.8
104.1	-1632.8
104.25	-1632.8
104.4	-1632.8
104.55	-1632.8
104.7	-1632.8
104.85	-1632.8
105	-1632.8
105.15	-1632.8
105.3	-1632.8
105.45	-1632.8
105.6	-1632.8
105.75	-1632.8
105.9	-1632.8
106.05	-1632.8
106.2	-1530.17
106.35	-1296.94
106.5	-1258.03
106.65	-1258.03
106.8	-1258.03
106.95	-1258.03
107.1	-1258.03
107.25	-1258.03
107.4	-1258.03
107.55	-1258.03
107.7	-1258.03
107.85	-1258.03
108	-1258.03
108.15	-1258.03
108.3	-1258.03
108.45	-1258.03
108.6	-1258.03
108.75	-1258.03
108.9	-1258.03
109.05	-1258.03
109.2	-1258.03
109.35	-1258.03
109.5	-1258.03
109.65	-1258.03
109.8	-1258.03
109.95	-1258.03
110.1	-1216.56
110.25	-984.444
110.4	-746.421
110.55	-746.421
110.7	-746.421
110.85	-746.421
111	-746.421
111.15	-746.421
111.3	-746.421
111.45	-746.421
111.6	-746.421
111.75	-746.421
111.9	-746.421
112.05	-746.421
112.2	-746.421
112.35	-746.421
112.5	-746.421
112.65	-746.421
112.8	-746.421
112.95	-746.421
113.1	-746.421
113.25	-746.421
113.4	-746.421
113.55	-746.421
113.7	-746.421
113.85	-746.421
114	-746.063
114.15	-729.002
114.3	-346.155
114.45	-346.155
114.6	-346.155
114.75	-346.155
114.9	-346.155
115.05	-346.155
115.2	-346.155
115.35	-346.155
115.5	-346.155
115.65	-346.155
115.8	-346.155
115.95	-346.155
116.1	-346.155
116.25	-346.155
116.4	-346.155
116.55	-346.155
116.7	-346.155
116.85	-346.155
117	-346.155
117.15	-346.155
117.3	-346.155
117.45	-346.155
117.6	-346.155
117.75	-346.155
117.9	-346.155
118.05	-346.155
118.2	-110.782
118.35	84.1002
118.5	111.149
118.65	111.149
118.8	111.149
118.95	111.149
119.1	111.149
119.25	111.149
119.4	111.149
119.55	111.149
119.7	111.149
119.85	111.149
120	111.149
120.15	111.149
120.3	111.149
120.45	111.149
120.6	111.149
120.75	111.149
120.9	111.149
121.05	111.149
121.2	111.149
121.35	111.149
121.5	111.149
121.65	111.149
121.8	111.149
121.95	111.149
122.1	178.556
122.25	507.684
122.4	657.386
122.55	657.386
122.7	657.386
122.85	657.386
123	657.386
123.15	657.386
123.3	657.386
123.45	657.386
123.6	657.386
123.75	657.386
123.9	657.386
124.05	657.386
124.2	657.386
124.35	657.386
124.5	657.386
124.65	657.386
124.8	657.386
124.95	657.386
125.1	657.386
125.25	657.386
125.4	657.386
125.55	657.386
125.7	657.386
125.85	657.386
126	657.386
126.15	796.1
126.3	993.514
126.45	1044.8
126.6	1044.8
126.75	1044.8
126.9	1044.8
127.05	1044.8
127.2	1044.8
127.35	1044.8
127.5	1044.8
127.65	1044.8
127.8	1044.8
127.95	1044.8
128.1	1044.8
128.25	1044.8
128.4	1044.8
128.55	1044.8
128.7	1044.8
128.85	1044.8
129	1044.8
129.15	1044.8
129.3	1044.8
129.45	1044.8
129.6	1044.8
129.75	1044.8
129.9	1044.8
130.05	1065.62
130.2	1165.26
130.35	1286.48
130.5	1286.48
130.65	1286.48
130.8	1286.48
130.95	1286.48
131.1	1286.48
131.25	1286.48
131.4	1286.48
131.55	1286.48
131.7	1286.48
131.85	1286.48
132	1286.48
132.15	1286.48
132.3	1286.48
132.45	1286.48
132.6	1286.48
132.75	1286.48
132.9	1286.48
133.05	1286.48
133.2	1286.48
133.35	1286.48
133.5	1286.48
133.65	1286.48
133.8	1286.48
133.95	1286.48
134.1	1287.65
134.25	1481.1
134.4	1497.9
134.55	1497.9
134.7	1497.9
134.85	1497.9
135	1497.9
135.15	1497.9
135.3	1497.9
135.45	1497.9
135.6	1497.9
135.75	1497.9
135.9	1497.9
136.05	1497.9
136.2	1497.9
136.35	1497.9
136.5	1497.9
136.65	1497.9
136.8	1497.9
136.95	1497.9
137.1	1497.9
137.25	1497.9
137.4	1497.9
137.55	1497.9
137.7	1497.9
137.85	1497.9
138	1497.9
138.15	1496.23
138.3	1494.04
138.45	1493.48
138.6	1493.48
138.75	1493.48
138.9	1493.48
139.05	1493.48
139.2	1493.48
139.35	1493.48
139.5	1493.48
139.65	1493.48
139.8	1493.48
139.95	1493.48
140.1	1493.48
140.25	1493.48
140.4	1493.48
140.55	1493.48
140.7	1493.48
140.85	1493.48
141	1493.48
141.15	1493.48
141.3	1493.48
141.45	1493.48
141.6	1493.48
141.75	1493.48
141.9	1493.48
142.05	1482.79
142.2	1362.41
142.35	1238.64
142.5	1238.64
142.65	1238.64
142.8	1238.64
142.95	1238.64
143.1	1238.64
143.25	1238.64
143.4	1238.64
143.55	1238.64
143.7	1238.64
143.85	1238.64
144	1238.64
144.15	1238.64
144.3	1238.64
144.45	1238.64
144.6	1238.64
144.75	1238.64
144.9	1238.64
145.05	1238.64
145.2	1238.64
145.35	1238.64
145.5	1238.64
145.65	1238.64
145.8	1238.64
145.95	1238.64
146.1	1212.38
146.25	1087.36
146.4	1028.53
146.55	1028.53
146.7	1028.53
146.85	1028.53
147	1028.53
147.15	1028.53
147.3	1028.53
147.45	1028.53
147.6	1028.53
147.75	1028.53
147.9	1028.53
148.05	1028.53
148.2	1028.53
148.35	1028.53
148.5	1028.53
148.65	1028.53
148.8	1028.53
148.95	1028.53
149.1	1028.53
149.25	1028.53
149.4	1028.53
149.55	1028.53
149.7	1028.53
149.85	1028.53
150	1028.53
150.15	981.75
150.3	827.6
150.45	806.612
150.6	806.612
150.75	806.612
150.9	806.612
151.05	806.612
151.2	806.612
151.35	806.612
151.5	806.612
151.65	806.612
151.8	806.612
151.95	806.612
152.1	806.612
152.25	806.612
152.4	806.612
152.55	806.612
152.7	806.612
152.85	806.612
153	806.612
153.15	806.612
153.3	806.612
153.45	806.612
153.6	806.612
153.75	806.612
153.9	806.612
154.05	806.612
154.2	567.533
154.35	326.812
154.5	281.754
154.65	281.754
154.8	281.754
154.95	281.754
155.1	281.754
155.25	281.754
155.4	281.754
155.55	281.754
155.7	281.754
155.85	281.754
156	281.754
156.15	281.754
156.3	281.754
156.45	281.754
156.6	281.754
156.75	281.754
156.9	281.754
157.05	281.754
157.2	281.754
157.35	281.754
157.5	281.754
157.65	281.754
157.8	281.754
157.95	281.754
158.1	235.231
158.25	-0.4094
158.4	-261.14
158.55	-261.14
158.7	-261.14
158.85	-261.14
159	-261.14
159.15	-261.14
159.3	-261.14
159.45	-261.14
159.6	-261.14
159.75	-261.14
159.9	-261.14
160.05	-261.14
160.2	-261.14
160.35	-261.14
160.5	-261.14
160.65	-261.14
160.8	-261.14
160.95	-261.14
161.1	-261.14
161.25	-261.14
161.4	-261.14
161.55	-261.14
161.7	-261.14
161.85	-261.14
162	-261.14
162.15	-261.14
162.3	-398.755
162.45	-426.043
162.6	-427.039
162.75	-427.039
162.9	-427.039
163.05	-427.039
163.2	-427.039
163.35	-427.039
163.5	-427.039
163.65	-427.039
163.8	-427.039
163.95	-427.039
164.1	-427.039
164.25	-427.039
164.4	-427.039
164.55	-427.039
164.7	-427.039
164.85	-427.039
165	-427.039
165.15	-427.039
165.3	-427.039
165.45	-427.039
165.6	-427.039
165.75	-427.039
165.9	-427.039
166.05	-427.039
166.2	-462.384
166.35	-528.53
166.5	-560.697
166.65	-560.697
166.8	-560.697
166.95	-560.697
167.1	-560.697
167.25	-560.697
167.4	-560.697
167.55	-560.697
167.7	-560.697
167.85	-560.697
168	-560.697
168.15	-560.697
168.3	-560.697
168.45	-560.697
168.6	-560.697
168.75	-560.697
168.9	-560.697
169.05	-560.697
169.2	-560.697
169.35	-560.697
169.5	-560.697
169.65	-560.697
169.8	-560.697
169.95	-560.697
170.1	-565.11
170.25	-638.31
170.4	-958.383
170.55	-958.383
170.7	-958.383
170.85	-958.383
171	-958.383
171.15	-958.383
171.3	-958.383
171.45	-958.383
171.6	-958.383
171.75	-958.383
171.9	-958.383
172.05	-958.383
172.2	-958.383
172.35	-958.383
172.5	-958.383
172.65	-958.383
172.8	-958.383
172.95	-958.383
173.1	-958.383
173.25	-958.383
173.4	-958.383
173.55	-958.383
173.7	-958.383
173.85	-958.383
174	-958.383
174.15	-958.383
174.3	-1030.26
174.45	-1094.85
174.6	-1110.36
174.75	-1110.36
174.9	-1110.36
175.05	-1110.36
175.2	-1110.36
175.35	-1110.36
175.5	-1110.36
175.65	-1110.36
175.8	-1110.36
175.95	-1110.36
176.1	-1110.36
176.25	-1110.36
176.4	-1110.36
176.55	-1110.36
176.7	-1110.36
176.85	-1110.36
177	-1110.36
177.15	-1110.36
177.3	-1110.36
177.45	-1110.36
177.6	-1110.36
177.75	-1110.36
177.9	-1110.36
178.05	-1110.36
178.2	-1086.93
178.35	-958.662
178.5	-772.089
178.65	-772.089
178.8	-772.089
178.95	-772.089
179.1	-772.089
179.25	-772.089
179.4	-772.089
179.55	-772.089
179.7	-772.089
179.85	-772.089
180	-772.089
180.15	-772.089
180.3	-772.089
180.45	-772.089
180.6	-772.089
180.75	-772.089
180.9	-772.089
181.05	-772.089
181.2	-772.089
181.35	-772.089
181.5	-772.089
181.65	-772.089
181.8	-772.089
181.95	-772.089
182.1	-772.089
182.25	-772.089
182.4	-613.698
182.55	-546.428
182.7	-538.84
182.85	-538.84
183	-538.84
183.15	-538.84
183.3	-538.84
183.45	-538.84
183.6	-538.84
183.75	-538.84
183.9	-538.84
184.05	-538.84
184.2	-538.84
184.35	-538.84
184.5	-538.84
184.65	-538.84
184.8	-538.84
184.95	-538.84
185.1	-538.84
185.25	-538.84
185.4	-538.84
185.55	-538.84
185.7	-538.84
185.85	-538.84
186	-538.84
186.15	-538.84
186.3	-546.502
186.45	-571.627
186.6	-592.24
186.75	-592.24
186.9	-592.24
187.05	-592.24
187.2	-592.24
187.35	-592.24
187.5	-592.24
187.65	-592.24
187.8	-592.24
187.95	-592.24
188.1	-592.24
188.25	-592.24
188.4	-592.24
188.55	-592.24
188.7	-592.24
188.85	-592.24
189	-592.24
189.15	-592.24
189.3	-592.24
189.45	-592.24
189.6	-592.24
189.75	-592.24
189.9	-592.24
190.05	-592.24
190.2	-592.24
190.35	-589.358
190.5	-412.911
190.65	-377.985
190.8	-377.985
190.95	-377.985
191.1	-377.985
191.25	-377.985
191.4	-377.985
191.55	-377.985
191.7	-377.985
191.85	-377.985
192	-377.985
192.15	-377.985
192.3	-377.985
192.45	-377.985
192.6	-377.985
192.75	-377.985
192.9	-377.985
193.05	-377.985
193.2	-377.985
193.35	-377.985
193.5	-377.985
193.65	-377.985
193.8	-377.985
193.95	-377.985
194.1	-377.985
194.25	-377.985
194.4	-281.509
194.55	-31.574
194.7	100.638
194.85	100.638
195	100.638
195.15	100.638
195.3	100.638
195.45	100.638
195.6	100.638
195.75	100.638
195.9	100.638
196.05	100.638
196.2	100.638
196.35	100.638
196.5	100.638
196.65	100.638
196.8	100.638
196.95	100.638
197.1	100.638
197.25	100.638
197.4	100.638
197.55	100.638
197.7	100.638
197.85	100.638
198	100.638
198.15	100.638
198.3	100.638
198.45	122.799
198.6	237.003
198.75	262.029
198.9	262.029
199.05	262.029
199.2	262.029
199.35	262.029
199.5	262.029
199.65	262.029
199.8	262.029
199.95	262.029
200.1	262.029
200.25	262.029
200.4	262.029
200.55	262.029
200.7	262.029
200.85	262.029
201	262.029
201.15	262.029
201.3	262.029
201.45	262.029
201.6	262.029
201.75	262.029
201.9	262.029
202.05	262.029
202.2	262.029
202.35	262.029
202.5	238.792
202.65	172.788
202.8	151.867
202.95	151.867
203.1	151.867
203.25	151.867
203.4	151.867
203.55	151.867
203.7	151.867
203.85	151.867
204	151.867
204.15	151.867
204.3	151.867
204.45	151.867
204.6	151.867
204.75	151.867
204.9	151.867
205.05	151.867
205.2	151.867
205.35	151.867
205.5	151.867
205.65	151.867
205.8	151.867
205.95	151.867
206.1	151.867
206.25	151.867
206.4	151.867
206.55	162.758
206.7	189.802
206.85	198.74
207	198.74
207.15	198.74
207.3	198.74
207.45	198.74
207.6	198.74
207.75	198.74
207.9	198.74
208.05	198.74
208.2	198.74
208.35	198.74
208.5	198.74
208.65	198.74
208.8	198.74
208.95	198.74
209.1	198.74
209.25	198.74
209.4	198.74
209.55	198.74
209.7	198.74
209.85	198.74
210	198.74
210.15	198.74
210.3	198.74
210.45	198.74
210.6	207.282
210.75	254.38
210.9	260.206
211.05	260.206
211.2	260.206
211.35	260.206
211.5	260.206
211.65	260.206
211.8	260.206
211.95	260.206
212.1	260.206
212.25	260.206
212.4	260.206
212.55	260.206
212.7	260.206
212.85	260.206
213	260.206
213.15	260.206
213.3	260.206
213.45	260.206
213.6	260.206
213.75	260.206
213.9	260.206
214.05	260.206
214.2	260.206
214.35	260.206
214.5	260.206
214.65	210.996
214.8	119.127
214.95	75.1886
215.1	75.1886
215.25	75.1886
215.4	75.1886
215.55	75.1886
215.7	75.1886
215.85	75.1886
216	75.1886
216.15	75.1886
216.3	75.1886
216.45	75.1886
216.6	75.1886
216.75	75.1886
216.9	75.1886
217.05	75.1886
217.2	75.1886
217.35	75.1886
217.5	75.1886
217.65	75.1886
217.8	75.1886
217.95	75.1886
218.1	75.1886
218.25	75.1886
218.4	75.1886
218.55	75.1886
218.7	66.3858
218.85	-144.703
219	-154.752
219.15	-154.752
219.3	-154.752
219.45	-154.752
219.6	-154.752
219.75	-154.752
219.9	-154.752
220.05	-154.752
220.2	-154.752
220.35	-154.752
220.5	-154.752
220.65	-154.752
220.8	-154.752
220.95	-154.752
221.1	-154.752
221.25	-154.752
221.4	-154.752
221.55	-154.752
221.7	-154.752
221.85	-154.752
222	-154.752
222.15	-154.752
222.3	-154.752
222.45	-154.752
222.6	-154.752
222.75	-186.692
222.9	-269.349
223.05	-310.228
223.2	-310.228
223.35	-310.228
223.5	-310.228
223.65	-310.228
223.8	-310.228
223.95	-310.228
224.1	-310.228
224.25	-310.228
224.4	-310.228
224.55	-310.228
224.7	-310.228
224.85	-310.228
225	-310.228
225.15	-310.228
225.3	-310.228
225.45	-310.228
225.6	-310.228
225.75	-310.228
225.9	-310.228
226.05	-310.228
226.2	-310.228
226.35	-310.228
226.5	-310.228
226.65	-310.228
226.8	-332.781
226.95	-437.146
227.1	-481.586
227.25	-481.586
227.4	-481.586
227.55	-481.586
227.7	-481.586
227.85	-481.586
228	-481.586
228.15	-481.586
228.3	-481.586
228.45	-481.586
228.6	-481.586
228.75	-481.586
228.9	-481.586
229.05	-481.586
229.2	-481.586
229.35	-481.586
229.5	-481.586
229.65	-481.586
229.8	-481.586
229.95	-481.586
230.1	-481.586
230.25	-481.586
230.4	-481.586
230.55	-481.586
230.7	-481.586
230.85	-481.851
231	-492.678
231.15	-496.072
231.3	-496.072
231.45	-496.072
231.6	-496.072
231.75	-496.072
231.9	-496.072
232.05	-496.072
232.2	-496.072
232.35	-496.072
232.5	-496.072
232.65	-496.072
232.8	-496.072
232.95	-496.072
233.1	-496.072
233.25	-496.072
233.4	-496.072
233.55	-496.072
233.7	-496.072
233.85	-496.072
234	-496.072
234.15	-496.072
234.3	-496.072
234.45	-496.072
234.6	-496.072
234.75	-496.072
234.9	-473.325
235.05	-388.578
235.2	-303.832
235.35	-303.832
235.5	-303.832
235.65	-303.832
235.8	-303.832
235.95	-303.832
236.1	-303.832
236.25	-303.832
236.4	-303.832
236.55	-303.832
236.7	-303.832
236.85	-303.832
237	-303.832
237.15	-303.832
237.3	-303.832
237.45	-303.832
