dTect V4.6
Well Log
Fri 04 Oct 2013, 15:50:53
!
Name: P_Impedance_rel
Unit of Measure: Kg/m2s
Header info: No
Storage type: Ascii
!
98.9173	-3257.41
99.4095	-3257.41
99.9016	-3257.41
100.394	-3257.41
100.886	-3257.41
101.378	-3257.41
101.87	-3038.22
102.362	-2880.47
102.854	-2849.81
103.346	-2849.81
103.839	-2849.81
104.331	-2849.81
104.823	-2849.81
105.315	-2849.81
105.807	-2849.81
106.299	-2849.81
106.791	-2849.81
107.283	-2849.81
107.776	-2849.81
108.268	-2849.81
108.76	-2849.81
109.252	-2849.81
109.744	-2849.81
110.236	-2849.81
110.728	-2849.81
111.22	-2849.81
111.713	-2849.81
112.205	-2849.81
112.697	-2849.81
113.189	-2849.81
113.681	-2849.81
114.173	-2849.8
114.665	-2392.97
115.157	-1439.69
115.65	-1332.47
116.142	-1332.47
116.634	-1332.47
117.126	-1332.47
117.618	-1332.47
118.11	-1332.47
118.602	-1332.47
119.094	-1332.47
119.587	-1332.47
120.079	-1332.47
120.571	-1332.47
121.063	-1332.47
121.555	-1332.47
122.047	-1332.47
122.539	-1332.47
123.031	-1332.47
123.524	-1332.47
124.016	-1332.47
124.508	-1332.47
125	-1332.47
125.492	-1332.47
125.984	-1332.47
126.476	-1332.47
126.969	-1332.47
127.461	-1250.85
127.953	-2.8917
128.445	105.153
128.937	105.153
129.429	105.153
129.921	105.153
130.413	105.153
130.906	105.153
131.398	105.153
131.89	105.153
132.382	105.153
132.874	105.153
133.366	105.153
133.858	105.153
134.35	105.153
134.843	105.153
135.335	105.153
135.827	105.153
136.319	105.153
136.811	105.153
137.303	105.153
137.795	105.153
138.287	105.153
138.78	105.153
139.272	105.153
139.764	105.155
140.256	189.515
140.748	577.325
141.24	882.353
141.732	882.353
142.224	882.353
142.717	882.353
143.209	882.353
143.701	882.353
144.193	882.353
144.685	882.353
145.177	882.353
145.669	882.353
146.161	882.353
146.654	882.353
147.146	882.353
147.638	882.353
148.13	882.353
148.622	882.353
149.114	882.353
149.606	882.353
150.098	882.353
150.591	882.353
151.083	882.353
151.575	882.353
152.067	882.353
152.559	882.353
153.051	901.748
153.543	1100.64
154.035	1430.24
154.528	1430.24
155.02	1430.24
155.512	1430.24
156.004	1430.24
156.496	1430.24
156.988	1430.24
157.48	1430.24
157.972	1430.24
158.465	1430.24
158.957	1430.24
159.449	1430.24
159.941	1430.24
160.433	1430.24
160.925	1430.24
161.417	1430.24
161.909	1430.24
162.402	1430.24
162.894	1430.24
163.386	1430.24
163.878	1430.24
164.37	1430.24
164.862	1430.24
165.354	1430.24
165.846	1430.24
166.339	1590.15
166.831	1849.45
167.323	1940.61
167.815	1940.61
168.307	1940.61
168.799	1940.61
169.291	1940.61
169.783	1940.61
170.276	1940.61
170.768	1940.61
171.26	1940.61
171.752	1940.61
172.244	1940.61
172.736	1940.61
173.228	1940.61
173.72	1940.61
174.213	1940.61
174.705	1940.61
175.197	1940.61
175.689	1940.61
176.181	1940.61
176.673	1940.61
177.165	1940.61
177.657	1940.61
178.15	1940.61
178.642	1940.61
179.134	1960.06
179.626	2026.82
180.118	2069.64
180.61	2069.64
181.102	2069.64
181.594	2069.64
182.087	2069.64
182.579	2069.64
183.071	2069.64
183.563	2069.64
184.055	2069.64
184.547	2069.64
185.039	2069.64
185.532	2069.64
186.024	2069.64
186.516	2069.64
187.008	2069.64
187.5	2069.64
187.992	2069.64
188.484	2069.64
188.976	2069.64
189.469	2069.64
189.961	2069.64
190.453	2069.64
190.945	2069.64
191.437	2069.64
191.929	2069.64
192.421	1961.63
192.913	1882.76
193.406	1871.2
193.898	1871.2
194.39	1871.2
194.882	1871.2
195.374	1871.2
195.866	1871.2
196.358	1871.2
196.85	1871.2
197.343	1871.2
197.835	1871.2
198.327	1871.2
198.819	1871.2
199.311	1871.2
199.803	1871.2
200.295	1871.2
200.787	1871.2
201.28	1871.2
201.772	1871.2
202.264	1871.2
202.756	1871.2
203.248	1871.2
203.74	1871.2
204.232	1871.2
204.724	1871.2
205.217	1817.35
205.709	1726.71
206.201	1696.68
206.693	1696.68
207.185	1696.68
207.677	1696.68
208.169	1696.68
208.661	1696.68
209.154	1696.68
209.646	1696.68
210.138	1696.68
210.63	1696.68
211.122	1696.68
211.614	1696.68
212.106	1696.68
212.598	1696.68
213.091	1696.68
213.583	1696.68
214.075	1696.68
214.567	1696.68
215.059	1696.68
215.551	1696.68
216.043	1696.68
216.535	1696.68
217.028	1696.68
217.52	1696.68
218.012	1691.4
218.504	1476.43
218.996	1403.89
219.488	1403.89
219.98	1403.89
220.472	1403.89
220.965	1403.89
221.457	1403.89
221.949	1403.89
222.441	1403.89
222.933	1403.89
223.425	1403.89
223.917	1403.89
224.409	1403.89
224.902	1403.89
225.394	1403.89
225.886	1403.89
226.378	1403.89
226.87	1403.89
227.362	1403.89
227.854	1403.89
228.346	1403.89
228.839	1403.89
229.331	1403.89
229.823	1403.89
230.315	1403.89
230.807	1403.87
231.299	1106.91
231.791	835.101
232.283	779.724
232.776	779.724
233.268	779.724
233.76	779.724
234.252	779.724
234.744	779.724
235.236	779.724
235.728	779.724
236.22	779.724
236.713	779.724
237.205	779.724
237.697	779.724
238.189	779.724
238.681	779.724
239.173	779.724
239.665	779.724
240.158	779.724
240.65	779.724
241.142	779.724
241.634	779.724
242.126	779.724
242.618	779.724
243.11	779.724
243.602	779.724
244.094	685.148
244.587	265.223
245.079	162.561
245.571	162.561
246.063	162.561
246.555	162.561
247.047	162.561
247.539	162.561
248.032	162.561
248.524	162.561
249.016	162.561
249.508	162.561
250	162.561
250.492	162.561
250.984	162.561
251.476	162.561
251.969	162.561
252.461	162.561
252.953	162.561
253.445	162.561
253.937	162.561
254.429	162.561
254.921	162.561
255.413	162.561
255.906	162.561
256.398	162.561
256.89	162.561
257.382	-80.4086
257.874	-211.147
258.366	-230.284
258.858	-230.284
259.35	-230.284
259.843	-230.284
260.335	-230.284
260.827	-230.284
261.319	-230.284
261.811	-230.284
262.303	-230.284
262.795	-230.284
263.287	-230.284
263.78	-230.284
264.272	-230.284
264.764	-230.284
265.256	-230.284
265.748	-230.284
266.24	-230.284
266.732	-230.284
267.224	-230.284
267.717	-230.284
268.209	-230.284
268.701	-230.284
269.193	-230.284
269.685	-230.291
270.177	-366.453
270.669	-645.374
271.161	-715.753
271.654	-715.753
272.146	-715.753
272.638	-715.753
273.13	-715.753
273.622	-715.753
274.114	-715.753
274.606	-715.753
275.098	-715.753
275.591	-715.753
276.083	-715.753
276.575	-715.753
277.067	-715.753
277.559	-715.753
278.051	-715.753
278.543	-715.753
279.035	-715.753
279.528	-715.753
280.02	-715.753
280.512	-715.753
281.004	-715.753
281.496	-715.753
281.988	-715.753
282.48	-715.753
282.972	-715.753
283.465	-1139.59
283.957	-1307.9
284.449	-1319
284.941	-1319
285.433	-1319
285.925	-1319
286.417	-1319
286.909	-1319
287.402	-1319
287.894	-1319
288.386	-1319
288.878	-1319
289.37	-1319
289.862	-1319
290.354	-1319
290.846	-1319
291.339	-1319
291.831	-1319
292.323	-1319
292.815	-1319
293.307	-1319
293.799	-1319
294.291	-1319
294.783	-1319
295.276	-1319
295.768	-1319
296.26	-1426.33
296.752	-1568.44
297.244	-1612.44
297.736	-1612.44
298.228	-1612.44
298.72	-1612.44
299.213	-1612.44
299.705	-1612.44
300.197	-1612.44
300.689	-1612.44
301.181	-1612.44
301.673	-1612.44
302.165	-1612.44
302.657	-1612.44
303.15	-1612.44
303.642	-1612.44
304.134	-1612.44
304.626	-1612.44
305.118	-1612.44
305.61	-1612.44
306.102	-1612.44
306.595	-1612.44
307.087	-1612.44
307.579	-1612.44
308.071	-1612.44
308.563	-1612.44
309.055	-1611.83
309.547	-1606.71
310.039	-1603.76
310.531	-1603.76
311.024	-1603.76
311.516	-1603.76
312.008	-1603.76
312.5	-1603.76
312.992	-1603.76
313.484	-1603.76
313.976	-1603.76
314.469	-1603.76
314.961	-1603.76
315.453	-1603.76
315.945	-1603.76
316.437	-1603.76
316.929	-1603.76
317.421	-1603.76
317.913	-1603.76
318.406	-1603.76
318.898	-1603.76
319.39	-1603.76
319.882	-1603.76
320.374	-1603.76
320.866	-1603.76
321.358	-1603.76
321.85	-1603.76
322.343	-1621.58
322.835	-1644.28
323.327	-1651.31
323.819	-1651.31
324.311	-1651.31
324.803	-1651.31
325.295	-1651.31
325.787	-1651.31
326.28	-1651.31
326.772	-1651.31
327.264	-1651.31
327.756	-1651.31
328.248	-1651.31
328.74	-1651.31
329.232	-1651.31
329.724	-1651.31
330.217	-1651.31
330.709	-1651.31
331.201	-1651.31
331.693	-1651.31
332.185	-1651.31
332.677	-1651.31
333.169	-1651.31
333.661	-1651.31
334.154	-1651.31
334.646	-1651.31
335.138	-1649.05
335.63	-1640.48
336.122	-1632.8
336.614	-1632.8
337.106	-1632.8
337.598	-1632.8
338.091	-1632.8
338.583	-1632.8
339.075	-1632.8
339.567	-1632.8
340.059	-1632.8
340.551	-1632.8
341.043	-1632.8
341.535	-1632.8
342.028	-1632.8
342.52	-1632.8
343.012	-1632.8
343.504	-1632.8
343.996	-1632.8
344.488	-1632.8
344.98	-1632.8
345.472	-1632.8
345.965	-1632.8
346.457	-1632.8
346.949	-1632.8
347.441	-1632.8
347.933	-1632.8
348.425	-1530.16
348.917	-1296.94
349.409	-1258.03
349.902	-1258.03
350.394	-1258.03
350.886	-1258.03
351.378	-1258.03
351.87	-1258.03
352.362	-1258.03
352.854	-1258.03
353.346	-1258.03
353.839	-1258.03
354.331	-1258.03
354.823	-1258.03
355.315	-1258.03
355.807	-1258.03
356.299	-1258.03
356.791	-1258.03
357.283	-1258.03
357.776	-1258.03
358.268	-1258.03
358.76	-1258.03
359.252	-1258.03
359.744	-1258.03
360.236	-1258.03
360.728	-1258.03
361.22	-1216.55
361.713	-984.432
362.205	-746.421
362.697	-746.421
363.189	-746.421
363.681	-746.421
364.173	-746.421
364.665	-746.421
365.158	-746.421
365.65	-746.421
366.142	-746.421
366.634	-746.421
367.126	-746.421
367.618	-746.421
368.11	-746.421
368.602	-746.421
369.095	-746.421
369.587	-746.421
370.079	-746.421
370.571	-746.421
371.063	-746.421
371.555	-746.421
372.047	-746.421
372.539	-746.421
373.032	-746.421
373.524	-746.421
374.016	-746.062
374.508	-729.002
375	-346.155
375.492	-346.155
375.984	-346.155
376.476	-346.155
376.969	-346.155
377.461	-346.155
377.953	-346.155
378.445	-346.155
378.937	-346.155
379.429	-346.155
379.921	-346.155
380.413	-346.155
380.906	-346.155
381.398	-346.155
381.89	-346.155
382.382	-346.155
382.874	-346.155
383.366	-346.155
383.858	-346.155
384.35	-346.155
384.843	-346.155
385.335	-346.155
385.827	-346.155
386.319	-346.155
386.811	-346.155
387.303	-346.155
387.795	-110.772
388.287	84.1016
388.78	111.149
389.272	111.149
389.764	111.149
390.256	111.149
390.748	111.149
391.24	111.149
391.732	111.149
392.224	111.149
392.717	111.149
393.209	111.149
393.701	111.149
394.193	111.149
394.685	111.149
395.177	111.149
395.669	111.149
396.161	111.149
396.654	111.149
397.146	111.149
397.638	111.149
398.13	111.149
398.622	111.149
399.114	111.149
399.606	111.149
400.098	111.152
400.591	178.573
401.083	507.692
401.575	657.386
402.067	657.386
402.559	657.386
403.051	657.386
403.543	657.386
404.035	657.386
404.528	657.386
405.02	657.386
405.512	657.386
406.004	657.386
406.496	657.386
406.988	657.386
407.48	657.386
407.972	657.386
408.465	657.386
408.957	657.386
409.449	657.386
409.941	657.386
410.433	657.386
410.925	657.386
411.417	657.386
411.909	657.386
412.402	657.386
412.894	657.386
413.386	657.393
413.878	796.1
414.37	993.514
414.862	1044.8
415.354	1044.8
415.846	1044.8
416.339	1044.8
416.831	1044.8
417.323	1044.8
417.815	1044.8
418.307	1044.8
418.799	1044.8
419.291	1044.8
419.783	1044.8
420.276	1044.8
420.768	1044.8
421.26	1044.8
421.752	1044.8
422.244	1044.8
422.736	1044.8
423.228	1044.8
423.721	1044.8
424.213	1044.8
424.705	1044.8
425.197	1044.8
425.689	1044.8
426.181	1044.8
426.673	1065.62
427.165	1165.27
427.658	1286.48
428.15	1286.48
428.642	1286.48
429.134	1286.48
429.626	1286.48
430.118	1286.48
430.61	1286.48
431.102	1286.48
431.595	1286.48
432.087	1286.48
432.579	1286.48
433.071	1286.48
433.563	1286.48
434.055	1286.48
434.547	1286.48
435.039	1286.48
435.531	1286.48
436.024	1286.48
436.516	1286.48
437.008	1286.48
437.5	1286.48
437.992	1286.48
438.484	1286.48
438.976	1286.48
439.469	1286.48
439.961	1287.65
440.453	1481.1
440.945	1497.9
441.437	1497.9
441.929	1497.9
442.421	1497.9
442.913	1497.9
443.406	1497.9
443.898	1497.9
444.39	1497.9
444.882	1497.9
445.374	1497.9
445.866	1497.9
446.358	1497.9
446.85	1497.9
447.343	1497.9
447.835	1497.9
448.327	1497.9
448.819	1497.9
449.311	1497.9
449.803	1497.9
450.295	1497.9
450.787	1497.9
451.28	1497.9
451.772	1497.9
452.264	1497.9
452.756	1497.9
453.248	1496.23
453.74	1494.04
454.232	1493.48
454.724	1493.48
455.217	1493.48
455.709	1493.48
456.201	1493.48
456.693	1493.48
457.185	1493.48
457.677	1493.48
458.169	1493.48
458.661	1493.48
459.154	1493.48
459.646	1493.48
460.138	1493.48
460.63	1493.48
461.122	1493.48
461.614	1493.48
462.106	1493.48
462.598	1493.48
463.091	1493.48
463.583	1493.48
464.075	1493.48
464.567	1493.48
465.059	1493.48
465.551	1493.48
466.043	1482.79
466.535	1362.4
467.028	1238.64
467.52	1238.64
468.012	1238.64
468.504	1238.64
468.996	1238.64
469.488	1238.64
469.98	1238.64
470.472	1238.64
470.965	1238.64
471.457	1238.64
471.949	1238.64
472.441	1238.64
472.933	1238.64
473.425	1238.64
473.917	1238.64
474.409	1238.64
474.902	1238.64
475.394	1238.64
475.886	1238.64
476.378	1238.64
476.87	1238.64
477.362	1238.64
477.854	1238.64
478.346	1238.64
478.839	1238.64
479.331	1212.38
479.823	1087.36
480.315	1028.53
480.807	1028.53
481.299	1028.53
481.791	1028.53
482.283	1028.53
482.776	1028.53
483.268	1028.53
483.76	1028.53
484.252	1028.53
484.744	1028.53
485.236	1028.53
485.728	1028.53
486.221	1028.53
486.713	1028.53
487.205	1028.53
487.697	1028.53
488.189	1028.53
488.681	1028.53
489.173	1028.53
489.665	1028.53
490.158	1028.53
490.65	1028.53
491.142	1028.53
491.634	1028.53
492.126	1028.53
492.618	981.734
493.11	827.6
493.602	806.612
494.095	806.612
494.587	806.612
495.079	806.612
495.571	806.612
496.063	806.612
496.555	806.612
497.047	806.612
497.539	806.612
498.032	806.612
498.524	806.612
499.016	806.612
499.508	806.612
500	806.612
500.492	806.612
500.984	806.612
501.476	806.612
501.969	806.612
502.461	806.612
502.953	806.612
503.445	806.612
503.937	806.612
504.429	806.612
504.921	806.612
505.413	806.612
505.906	567.509
506.398	326.812
506.89	281.754
507.382	281.754
507.874	281.754
508.366	281.754
508.858	281.754
509.35	281.754
509.843	281.754
510.335	281.754
510.827	281.754
511.319	281.754
511.811	281.754
512.303	281.754
512.795	281.754
513.287	281.754
513.78	281.754
514.272	281.754
514.764	281.754
515.256	281.754
515.748	281.754
516.24	281.754
516.732	281.754
517.224	281.754
517.717	281.754
518.209	281.749
518.701	235.231
519.193	-0.4094
519.685	-261.14
520.177	-261.14
520.669	-261.14
521.161	-261.14
521.654	-261.14
522.146	-261.14
522.638	-261.14
523.13	-261.14
523.622	-261.14
524.114	-261.14
524.606	-261.14
525.098	-261.14
525.591	-261.14
526.083	-261.14
526.575	-261.14
527.067	-261.14
527.559	-261.14
528.051	-261.14
528.543	-261.14
529.035	-261.14
529.528	-261.14
530.02	-261.14
530.512	-261.14
531.004	-261.14
531.496	-261.14
531.988	-261.154
532.48	-398.755
532.972	-426.043
533.465	-427.039
533.957	-427.039
534.449	-427.039
534.941	-427.039
535.433	-427.039
535.925	-427.039
536.417	-427.039
536.909	-427.039
537.402	-427.039
537.894	-427.039
538.386	-427.039
538.878	-427.039
539.37	-427.039
539.862	-427.039
540.354	-427.039
540.846	-427.039
541.339	-427.039
541.831	-427.039
542.323	-427.039
542.815	-427.039
543.307	-427.039
543.799	-427.039
544.291	-427.039
544.784	-427.039
545.276	-462.391
545.768	-528.53
546.26	-560.697
546.752	-560.697
547.244	-560.697
547.736	-560.697
548.228	-560.697
548.72	-560.697
549.213	-560.697
549.705	-560.697
550.197	-560.697
550.689	-560.697
551.181	-560.697
551.673	-560.697
552.165	-560.697
552.658	-560.697
553.15	-560.697
553.642	-560.697
554.134	-560.697
554.626	-560.697
555.118	-560.697
555.61	-560.697
556.102	-560.697
556.595	-560.697
557.087	-560.697
557.579	-560.697
558.071	-565.11
558.563	-638.31
559.055	-958.383
559.547	-958.383
560.039	-958.383
560.531	-958.383
561.024	-958.383
561.516	-958.383
562.008	-958.383
562.5	-958.383
562.992	-958.383
563.484	-958.383
563.976	-958.383
564.469	-958.383
564.961	-958.383
565.453	-958.383
565.945	-958.383
566.437	-958.383
566.929	-958.383
567.421	-958.383
567.913	-958.383
568.406	-958.383
568.898	-958.383
569.39	-958.383
569.882	-958.383
570.374	-958.383
570.866	-958.383
571.358	-958.39
571.85	-1030.26
572.343	-1094.85
572.835	-1110.36
573.327	-1110.36
573.819	-1110.36
574.311	-1110.36
574.803	-1110.36
575.295	-1110.36
575.787	-1110.36
576.28	-1110.36
576.772	-1110.36
577.264	-1110.36
577.756	-1110.36
578.248	-1110.36
578.74	-1110.36
579.232	-1110.36
579.724	-1110.36
580.217	-1110.36
580.709	-1110.36
581.201	-1110.36
581.693	-1110.36
582.185	-1110.36
582.677	-1110.36
583.169	-1110.36
583.661	-1110.36
584.154	-1110.36
584.646	-1086.92
585.138	-958.662
585.63	-772.089
586.122	-772.089
586.614	-772.089
587.106	-772.089
587.598	-772.089
588.091	-772.089
588.583	-772.089
589.075	-772.089
589.567	-772.089
590.059	-772.089
590.551	-772.089
591.043	-772.089
591.535	-772.089
592.028	-772.089
592.52	-772.089
593.012	-772.089
593.504	-772.089
593.996	-772.089
594.488	-772.089
594.98	-772.089
595.472	-772.089
595.965	-772.089
596.457	-772.089
596.949	-772.089
597.441	-772.089
597.933	-772.089
598.425	-613.691
598.917	-546.428
599.409	-538.84
599.902	-538.84
600.394	-538.84
600.886	-538.84
601.378	-538.84
601.87	-538.84
602.362	-538.84
602.854	-538.84
603.346	-538.84
603.839	-538.84
604.331	-538.84
604.823	-538.84
605.315	-538.84
605.807	-538.84
606.299	-538.84
606.791	-538.84
607.284	-538.84
607.776	-538.84
608.268	-538.84
608.76	-538.84
609.252	-538.84
609.744	-538.84
610.236	-538.84
610.728	-538.841
611.22	-546.502
611.713	-571.629
612.205	-592.24
612.697	-592.24
613.189	-592.24
613.681	-592.24
614.173	-592.24
614.665	-592.24
615.157	-592.24
615.65	-592.24
616.142	-592.24
616.634	-592.24
617.126	-592.24
617.618	-592.24
618.11	-592.24
618.602	-592.24
619.095	-592.24
619.587	-592.24
620.079	-592.24
620.571	-592.24
621.063	-592.24
621.555	-592.24
622.047	-592.24
622.539	-592.24
623.032	-592.24
623.524	-592.24
624.016	-592.24
624.508	-589.358
625	-412.911
625.492	-377.985
625.984	-377.985
626.476	-377.985
626.969	-377.985
627.461	-377.985
627.953	-377.985
628.445	-377.985
628.937	-377.985
629.429	-377.985
629.921	-377.985
630.413	-377.985
630.906	-377.985
631.398	-377.985
631.89	-377.985
632.382	-377.985
632.874	-377.985
633.366	-377.985
633.858	-377.985
634.35	-377.985
634.843	-377.985
635.335	-377.985
635.827	-377.985
636.319	-377.985
636.811	-377.985
637.303	-377.975
637.795	-281.484
638.287	-31.574
638.78	100.638
639.272	100.638
639.764	100.638
640.256	100.638
640.748	100.638
641.24	100.638
641.732	100.638
642.224	100.638
642.717	100.638
643.209	100.638
643.701	100.638
644.193	100.638
644.685	100.638
645.177	100.638
645.669	100.638
646.161	100.638
646.654	100.638
647.146	100.638
647.638	100.638
648.13	100.638
648.622	100.638
649.114	100.638
649.606	100.638
650.098	100.638
650.591	100.638
651.083	122.811
651.575	237.003
652.067	262.029
652.559	262.029
653.051	262.029
653.543	262.029
654.035	262.029
654.528	262.029
655.02	262.029
655.512	262.029
656.004	262.029
656.496	262.029
656.988	262.029
657.48	262.029
657.972	262.029
658.465	262.029
658.957	262.029
659.449	262.029
659.941	262.029
660.433	262.029
660.925	262.029
661.417	262.029
661.909	262.029
662.402	262.029
662.894	262.029
663.386	262.029
663.878	262.029
664.37	238.785
664.862	172.786
665.354	151.867
665.846	151.867
666.339	151.867
666.831	151.867
667.323	151.867
667.815	151.867
668.307	151.867
668.799	151.867
669.291	151.867
669.784	151.867
670.276	151.867
670.768	151.867
671.26	151.867
671.752	151.867
672.244	151.867
672.736	151.867
673.228	151.867
673.721	151.867
674.213	151.867
674.705	151.867
675.197	151.867
675.689	151.867
676.181	151.867
676.673	151.867
677.165	151.868
677.657	162.758
678.15	189.803
678.642	198.74
679.134	198.74
679.626	198.74
680.118	198.74
680.61	198.74
681.102	198.74
681.595	198.74
682.087	198.74
682.579	198.74
683.071	198.74
683.563	198.74
684.055	198.74
684.547	198.74
685.039	198.74
685.532	198.74
686.024	198.74
686.516	198.74
687.008	198.74
687.5	198.74
687.992	198.74
688.484	198.74
688.976	198.74
689.469	198.74
689.961	198.74
690.453	198.741
690.945	207.282
691.437	254.381
691.929	260.206
692.421	260.206
692.913	260.206
693.406	260.206
693.898	260.206
694.39	260.206
694.882	260.206
695.374	260.206
695.866	260.206
696.358	260.206
696.85	260.206
697.343	260.206
697.835	260.206
698.327	260.206
698.819	260.206
699.311	260.206
699.803	260.206
700.295	260.206
700.787	260.206
701.28	260.206
701.772	260.206
702.264	260.206
702.756	260.206
703.248	260.206
703.74	260.201
704.232	210.987
704.724	119.127
